Freq[Hz]  Imp[Ohm] Phase[Deg]
10.0000      4.70    30.17
10.1455      4.71    30.18
10.2930      4.73    30.18
10.4427      4.75    30.19
10.5946      4.78    30.18
10.7487      4.80    30.13
10.9051      4.82    30.09
11.0637      4.83    30.07
11.2246      4.85    30.06
11.3879      4.86    30.07
11.5535      4.87    30.11
11.7216      4.88    30.16
11.8921      4.89    30.26
12.0650      4.90    30.41
12.2405      4.91    30.60
12.4186      4.93    30.80
12.5992      4.95    30.98
12.7825      4.97    31.11
12.9684      4.99    31.24
13.1570      5.01    31.38
13.3484      5.02    31.54
13.5426      5.04    31.76
13.7395      5.06    32.00
13.9394      5.09    32.22
14.1421      5.12    32.39
14.3478      5.14    32.55
14.5565      5.17    32.70
14.7683      5.19    32.85
14.9831      5.21    33.03
15.2010      5.23    33.26
15.4221      5.25    33.54
15.6464      5.27    33.86
15.8740      5.31    34.17
16.1049      5.34    34.45
16.3392      5.38    34.70
16.5768      5.42    34.92
16.8179      5.45    35.13
17.0626      5.49    35.36
17.3107      5.52    35.60
17.5625      5.56    35.84
17.8180      5.60    36.09
18.0771      5.64    36.33
18.3401      5.68    36.55
18.6068      5.72    36.79
18.8775      5.76    37.05
19.1521      5.80    37.32
19.4306      5.84    37.61
19.7133      5.88    37.92
20.0000      5.93    38.24
20.2909      5.99    38.55
20.5860      6.04    38.86
20.8855      6.10    39.16
21.1893      6.16    39.44
21.4975      6.22    39.72
21.8102      6.28    40.01
22.1274      6.34    40.31
22.4492      6.41    40.62
22.7758      6.48    40.91
23.1071      6.55    41.20
23.4432      6.62    41.51
23.7841      6.70    41.81
24.1301      6.77    42.12
24.4811      6.85    42.45
24.8372      6.94    42.78
25.1984      7.04    43.10
25.5649      7.13    43.41
25.9368      7.23    43.75
26.3141      7.33    44.09
26.6968      7.45    44.44
27.0851      7.57    44.76
27.4791      7.70    45.03
27.8788      7.83    45.30
28.2843      7.97    45.58
28.6957      8.11    45.86
29.1131      8.26    46.14
29.5365      8.42    46.44
29.9661      8.60    46.72
30.4020      8.79    46.97
30.8442      9.00    47.19
31.2929      9.21    47.38
31.7480      9.44    47.55
32.2098      9.69    47.65
32.6783      9.95    47.68
33.1536     10.22    47.69
33.6359     10.52    47.65
34.1251     10.82    47.56
34.6215     11.15    47.46
35.1250     11.50    47.33
35.6359     11.89    47.12
36.1543     12.30    46.82
36.6802     12.76    46.43
37.2137     13.24    45.90
37.7550     13.75    45.24
38.3041     14.28    44.48
38.8613     14.84    43.65
39.4265     15.47    42.74
40.0000     16.15    41.69
40.5818     16.94    40.42
41.1721     17.78    38.88
41.7710     18.71    36.99
42.3785     19.68    34.68
42.9949     20.66    31.96
43.6203     21.62    28.80
44.2548     22.49    25.26
44.8985     23.24    21.39
45.5515     23.83    17.28
46.2141     24.24    13.01
46.8863     24.43     8.69
47.5683     24.45     4.37
48.2602     24.27     0.11
48.9621     23.94    -4.01
49.6743     23.46    -7.96
50.3968     22.87   -11.71
51.1299     22.20   -15.24
51.8736     21.47   -18.57
52.6281     20.70   -21.69
53.3936     19.90   -24.62
54.1702     19.08   -27.39
54.9581     18.21   -29.97
55.7575     17.30   -32.22
56.5685     16.40   -34.08
57.3914     15.54   -35.58
58.2261     14.74   -36.76
59.0730     14.03   -37.72
59.9323     13.39   -38.55
60.8040     12.79   -39.28
61.6884     12.19   -39.86
62.5857     11.63   -40.23
63.4960     11.09   -40.38
64.4196     10.61   -40.34
65.3566     10.18   -40.15
66.3073      9.79   -39.85
67.2717      9.42   -39.46
68.2502      9.09   -38.96
69.2429      8.80   -38.41
70.2501      8.54   -37.85
71.2719      8.30   -37.29
72.3086      8.07   -36.71
73.3603      7.84   -36.09
74.4274      7.63   -35.39
75.5099      7.45   -34.65
76.6083      7.27   -33.87
77.7226      7.10   -33.03
78.8531      6.96   -32.17
80.0000      6.84   -31.35
81.1636      6.71   -30.55
82.3442      6.60   -29.75
83.5419      6.50   -29.01
84.7570      6.39   -28.26
85.9899      6.29   -27.47
87.2406      6.19   -26.63
88.5096      6.09   -25.76
89.7970      6.01   -24.85
91.1031      5.94   -23.94
92.4282      5.86   -23.02
93.7726      5.80   -22.08
95.1366      5.75   -21.15
96.5204      5.70   -20.23
97.9243      5.66   -19.31
99.3486      5.63   -18.43
100.794      5.60   -17.63
102.260      5.57   -16.88
103.747      5.55   -16.16
105.256      5.52   -15.47
106.787      5.49   -14.79
108.340      5.46   -14.10
109.916      5.42   -13.38
111.515      5.40   -12.65
113.137      5.38   -11.95
114.783      5.35   -11.23
116.452      5.33   -10.50
118.146      5.32    -9.80
119.865      5.30    -9.10
121.608      5.29    -8.41
123.377      5.28    -7.74
125.171      5.26    -7.07
126.992      5.25    -6.41
128.839      5.25    -5.76
130.713      5.23    -5.11
132.615      5.23    -4.44
134.543      5.22    -3.79
136.500      5.22    -3.14
138.486      5.21    -2.48
140.500      5.21    -1.83
142.544      5.21    -1.19
144.617      5.21    -0.55
146.721      5.22     0.08
148.855      5.22     0.68
151.020      5.23     1.27
153.217      5.24     1.84
155.445      5.24     2.41
157.706      5.25     2.97
160.000      5.25     3.54
162.327      5.26     4.12
164.688      5.27     4.69
167.084      5.29     5.24
169.514      5.30     5.78
171.980      5.31     6.31
174.481      5.33     6.82
177.019      5.34     7.31
179.594      5.35     7.80
182.206      5.36     8.30
184.856      5.38     8.79
187.545      5.39     9.30
190.273      5.41     9.82
193.041      5.43    10.31
195.849      5.44    10.78
198.697      5.46    11.25
201.587      5.48    11.70
204.520      5.50    12.16
207.494      5.51    12.63
210.512      5.53    13.11
213.574      5.56    13.56
216.681      5.58    14.01
219.833      5.60    14.44
223.030      5.62    14.86
226.274      5.65    15.29
229.565      5.67    15.72
232.905      5.69    16.15
236.292      5.72    16.57
239.729      5.74    16.97
243.216      5.77    17.37
246.754      5.79    17.76
250.343      5.82    18.14
253.984      5.84    18.55
257.678      5.86    18.97
261.426      5.89    19.38
265.229      5.92    19.78
269.087      5.95    20.19
273.001      5.98    20.57
276.972      6.00    20.97
281.000      6.04    21.36
285.088      6.07    21.74
289.234      6.10    22.12
293.441      6.13    22.51
297.709      6.17    22.88
302.040      6.20    23.23
306.433      6.23    23.60
310.890      6.27    23.96
315.412      6.31    24.30
320.000      6.34    24.64
324.655      6.38    24.99
329.377      6.42    25.31
334.168      6.45    25.64
339.028      6.49    25.98
343.959      6.53    26.31
348.962      6.57    26.63
354.038      6.61    26.94
359.188      6.65    27.23
364.412      6.69    27.55
369.713      6.73    27.88
375.090      6.77    28.20
380.546      6.81    28.51
386.081      6.85    28.84
391.697      6.90    29.14
397.394      6.94    29.43
403.175      6.99    29.72
409.039      7.03    30.02
414.989      7.08    30.31
421.025      7.13    30.59
427.149      7.18    30.86
433.362      7.22    31.14
439.665      7.27    31.42
446.060      7.31    31.71
452.548      7.37    31.99
459.131      7.42    32.26
465.809      7.47    32.52
472.584      7.53    32.76
479.458      7.58    33.01
486.432      7.62    33.27
493.507      7.68    33.55
500.686      7.73    33.83
507.968      7.79    34.10
515.357      7.85    34.36
522.853      7.91    34.59
530.458      7.97    34.81
538.174      8.03    35.03
546.002      8.09    35.25
553.943      8.15    35.46
562.001      8.22    35.66
570.175      8.28    35.85
578.469      8.34    36.04
586.883      8.39    36.23
595.419      8.46    36.43
604.080      8.51    36.62
612.866      8.58    36.80
621.780      8.63    37.00
630.824      8.69    37.21
640.000      8.76    37.41
649.309      8.82    37.62
658.753      8.88    37.82
668.335      8.95    38.02
678.056      9.01    38.22
687.919      9.07    38.43
697.925      9.15    38.65
708.077      9.21    38.87
718.376      9.29    39.08
728.825      9.37    39.26
739.426      9.45    39.40
750.181      9.52    39.55
761.093      9.60    39.70
772.163      9.67    39.82
783.394      9.74    39.97
794.789      9.82    40.10
806.349      9.89    40.20
818.078      9.95    40.32
829.977     10.03    40.45
842.050     10.09    40.57
854.298     10.15    40.70
866.724     10.21    40.86
879.330     10.28    41.01
892.120     10.33    41.16
905.097     10.38    41.36
918.262     10.42    41.61
931.618     10.46    41.93
945.169     10.51    42.39
958.917     10.58    42.93
972.864     10.70    43.45
987.015     10.84    43.88
1001.37     11.00    44.19
1015.94     11.16    44.36
1030.71     11.31    44.39
1045.71     11.43    44.40
1060.92     11.54    44.42
1076.35     11.65    44.45
1092.00     11.75    44.49
1107.89     11.85    44.56
1124.00     11.95    44.65
1140.35     12.05    44.74
1156.94     12.16    44.85
1173.77     12.28    44.93
1190.84     12.38    44.99
1208.16     12.49    45.06
1225.73     12.59    45.13
1243.56     12.70    45.20
1261.65     12.80    45.27
1280.00     12.91    45.37
1298.62     13.02    45.45
1317.51     13.13    45.53
1336.67     13.24    45.60
1356.11     13.34    45.69
1375.84     13.45    45.78
1395.85     13.57    45.86
1416.15     13.68    45.93
1436.75     13.79    46.01
1457.65     13.91    46.10
1478.85     14.03    46.16
1500.36     14.13    46.23
1522.19     14.24    46.33
1544.33     14.36    46.45
1566.79     14.48    46.55
1589.58     14.60    46.64
1612.70     14.72    46.73
1636.16     14.85    46.83
1659.95     14.97    46.93
1684.10     15.10    47.03
1708.60     15.23    47.15
1733.45     15.38    47.25
1758.66     15.53    47.31
1784.24     15.66    47.36
1810.19     15.79    47.42
1836.52     15.92    47.49
1863.24     16.06    47.56
1890.34     16.19    47.66
1917.83     16.35    47.76
1945.73     16.50    47.81
1974.03     16.65    47.84
2002.74     16.79    47.91
2031.87     16.94    47.97
2061.43     17.08    48.03
2091.41     17.23    48.11
2121.83     17.39    48.19
2152.69     17.56    48.24
2184.01     17.73    48.26
2215.77     17.89    48.27
2248.00     18.04    48.30
2280.70     18.19    48.33
2313.87     18.35    48.38
2347.53     18.50    48.45
2381.68     18.68    48.51
2416.32     18.86    48.55
2451.46     19.04    48.55
2487.12     19.20    48.55
2523.30     19.37    48.56
2560.00     19.53    48.59
2597.24     19.70    48.62
2635.01     19.86    48.68
2673.34     20.06    48.73
2712.23     20.25    48.75
2751.68     20.45    48.73
2791.70     20.62    48.71
2832.31     20.80    48.72
2873.50     20.97    48.74
2915.30     21.18    48.74
2957.70     21.36    48.71
3000.72     21.54    48.69
3044.37     21.70    48.68
3088.65     21.86    48.73
3133.58     22.04    48.82
3179.16     22.25    48.89
3225.40     22.47    48.94
3272.31     22.71    48.94
3319.91     22.94    48.89
3368.20     23.14    48.83
3417.19     23.34    48.77
3466.89     23.52    48.73
3517.32     23.69    48.74
3568.48     23.91    48.76
3620.39     24.11    48.76
3673.05     24.32    48.79
3726.47     24.54    48.81
3780.67     24.79    48.79
3835.67     25.00    48.76
3891.46     25.21    48.74
3948.06     25.42    48.75
4005.49     25.67    48.75
4063.75     25.91    48.73
4122.86     26.16    48.68
4182.82     26.38    48.61
4243.66     26.60    48.57
4305.39     26.82    48.54
4368.01     27.05    48.52
4431.55     27.28    48.52
4496.01     27.54    48.49
4561.40     27.80    48.44
4627.75     28.04    48.37
4695.06     28.28    48.29
4763.35     28.51    48.22
4832.64     28.72    48.19
4902.93     28.94    48.18
4974.24     29.19    48.17
5046.60     29.43    48.17
5120.00     29.69    48.17
5194.47     29.98    48.14
5270.03     30.23    48.09
5346.68     30.49    48.05
5424.45     30.76    48.01
5503.35     31.02    47.96
5583.40     31.26    47.94
5664.61     31.52    47.95
5747.01     31.80    47.97
5830.60     32.11    48.00
5915.41     32.44    48.02
6001.45     32.82    47.99
6088.74     33.21    47.87
6177.30     33.56    47.68
6267.15     33.89    47.47
6358.31     34.20    47.24
6450.80     34.42    47.01
6544.62     34.64    46.86
6639.82     34.85    46.75
6736.40     35.07    46.70
6834.38     35.32    46.68
6933.79     35.60    46.67
7034.64     35.91    46.66
7136.96     36.25    46.62
7240.77     36.60    46.51
7346.09     36.88    46.40
7452.94     37.19    46.32
7561.35     37.51    46.23
7671.33     37.83    46.13
7782.91     38.14    46.03
7896.12     38.46    45.93
8010.97     38.79    45.82
8127.49     39.12    45.70
8245.71     39.40    45.59
8365.65     39.74    45.50
8487.33     40.08    45.40
8610.78     40.42    45.28
8736.03     40.76    45.17
8863.09     41.16    45.01
8992.01     41.47    44.83
9122.80     41.83    44.65
9255.50     42.13    44.45
9390.12     42.44    44.26
9526.70     42.72    44.09
9665.27     43.01    43.93
9805.86     43.29    43.79
9948.49     43.59    43.65
10093.2     43.87    43.51
10240.0     44.16    43.40
10388.9     44.46    43.27
10540.1     44.77    43.15
10693.4     45.07    43.02
10848.9     45.37    42.90
11006.7     45.68    42.77
11166.8     45.98    42.65
11329.2     46.28    42.52
11494.0     46.59    42.40
11661.2     46.89    42.27
11830.8     47.20    42.15
12002.9     47.50    42.03
12177.5     47.80    41.91
12354.6     48.11    41.79
12534.3     48.41    41.68
12716.6     48.71    41.56
12901.6     49.02    41.44
13089.2     49.32    41.33
13279.6     49.63    41.22
13472.8     49.93    41.11
13668.8     50.23    40.99
13867.6     50.54    40.89
14069.3     50.84    40.78
14273.9     51.14    40.67
14481.5     51.45    40.57
14692.2     51.75    40.47
14905.9     52.05    40.36
15122.7     52.36    40.26
15342.7     52.66    40.17
15565.8     52.97    40.07
15792.2     53.27    39.97
16021.9     53.57    39.88
16255.0     53.88    39.79
16491.4     54.18    39.70
16731.3     54.48    39.61
16974.7     54.79    39.53
17221.6     55.09    39.44
17472.1     55.40    39.36
17726.2     55.70    39.28
17984.0     56.00    39.21
18245.6     56.31    39.13
18511.0     56.61    39.06
18780.2     56.91    38.99
19053.4     57.22    38.92
19330.5     57.52    38.86
19611.7     57.83    38.80
19897.0     58.13    38.74
20186.4     58.43    38.69
20480.0     58.74    38.64
20777.9     59.04    38.60
21080.1     59.34    38.56
21386.7     59.65    38.54
21697.8     59.80    38.53
22000.0     59.95    38.52
